File: data/20151123_CuHcF_2A_for_elettra.txt
Cycle ID	Cap_Chg(mAh)	Cap_DChg(mAh)	RCap_Chg(mAh/g)	RCap_DChg(mAh/g)	Efficiency(%)	Engy_Chg(mWh)	Engy_DChg(mWh)	Mid-value Voltage(mV)	CC_Chg_Cap(mAh)	CC_Chg_Rat(%)	Platform_Cap(mAh)	Platform_RCap(mAh/g)	Platform_Efficiency(%)	Platform_Time	Capacitance_Chg(F)	Capacitance_DChg(F)	rd(mO)	REngy_Chg(mWh/g)	REngy_DChg(mWh/g)	Energy Efficiency(%)
	Step ID	Step Type	Step Time(H:M:S:ms)	Cap(mAh)	CmpCap(mAh/g)	Energy(mWh)	CmpEng(mWh/g)	Capacitance_Chg(F)	Start Vol(mV)	End Vol(mV)	Start Temperature(?)	End Temperature(?)
		Record ID	Time(H:M:S:ms)	Vol(mV)	Cur(mA)	Temperature(?)	Cap(mAh)	CmpCap(mAh/g)	Energy(mWh)	CmpEng(mWh/g)	Realtime
1	0.0001	0.0002	0.1458	0.1787	122.64	0.0000	0.0000	140.1	0.0000	0.00	0.0002	0.1787	100.00	0:01:05	0.0000	0.0000	0.0000	0.0388	0.0246	63.45%
		198	0:00:45:000	79.6	-0.0099	0.0	0.0001	0.1238	0.0000	0.0	2015-11-23 10:48:29
		394	0:00:20:000	187.8	0.0099	0.0	0.0001	0.0550	0.0000	0.0	2015-11-23 11:03:01
	39	CC_DChg	0:01:07:000	0.0002	0.1843	0.0000	0.0243	0.0	346.9	-1.2	0.0	0.0
		789	0:00:55:000	46.8	-0.0099	0.0	0.0002	0.1513	0.0000	0.0	2015-11-23 11:32:19
		985	0:00:00:000	52.0	0.0099	0.0	0.0000	0.0000	0.0000	0.0	2015-11-23 11:46:59
		1183	0:00:00:000	50.8	0.0099	0.0	0.0000	0.0000	0.0000	0.0	2015-11-23 12:01:39
		1381	0:00:00:000	56.4	0.0099	0.0	0.0000	0.0000	0.0000	0.0	2015-11-23 12:16:31
		1579	0:00:00:000	52.0	0.0099	0.0	0.0000	0.0000	0.0000	0.0	2015-11-23 12:31:35
56	0.0002	0.0002	0.2208	0.2011	91.10	0.0001	0.0000	125.2	0.0000	0.00	0.0002	0.2011	100.00	0:01:13	0.0000	0.0000	0.0000	0.0568	0.0259	45.57%
		1977	0:00:45:000	88.3	-0.0099	0.0	0.0001	0.1246	0.0000	0.0	2015-11-23 13:01:46
		2175	0:00:15:000	226.9	-0.0099	0.0	0.0000	0.0414	0.0000	0.0	2015-11-23 13:16:48
		2374	0:01:20:000	390.3	0.0100	0.0	0.0002	0.2214	0.0001	0.1	2015-11-23 13:32:00
		2572	0:00:50:000	306.6	0.0099	0.0	0.0001	0.1383	0.0000	0.0	2015-11-23 13:46:58
		2770	0:00:25:000	220.1	0.0100	0.0	0.0001	0.0692	0.0000	0.0	2015-11-23 14:01:59
		2968	0:00:05:000	88.6	0.0100	0.0	0.0000	0.0138	0.0000	0.0	2015-11-23 14:16:58
		3168	0:01:06:000	-2.4	-0.0100	0.0	0.0002	0.1829	0.0000	0.0	2015-11-23 14:32:10
		3366	0:00:45:000	77.8	-0.0099	0.0	0.0001	0.1247	0.0000	0.0	2015-11-23 14:46:53
		3564	0:00:40:000	94.8	-0.0100	0.0	0.0001	0.1109	0.0000	0.0	2015-11-23 15:01:47
		3762	0:01:00:000	14.5	-0.0100	0.0	0.0002	0.1666	0.0000	0.0	2015-11-23 15:16:55
		3958	0:00:10:000	132.0	0.0100	0.0	0.0000	0.0277	0.0000	0.0	2015-11-23 15:31:47
		4156	0:00:40:000	274.0	0.0100	0.0	0.0001	0.1108	0.0000	0.0	2015-11-23 15:46:52
		4354	0:01:05:000	355.2	0.0100	0.0	0.0002	0.1805	0.0000	0.0	2015-11-23 16:01:58
	279	CC_DChg	0:01:03:000	0.0002	0.1743	0.0000	0.0243	0.0	349.0	-1.8	0.0	0.0
		4749	0:00:20:000	193.7	-0.0099	0.0	0.0001	0.0552	0.0000	0.0	2015-11-23 16:31:47
		4947	0:00:50:000	48.0	-0.0099	0.0	0.0001	0.1379	0.0000	0.0	2015-11-23 16:46:41
		5143	0:00:00:000	51.1	0.0099	0.0	0.0000	0.0000	0.0000	0.0	2015-11-23 17:01:25
		5341	0:00:30:000	238.4	0.0099	0.0	0.0001	0.0827	0.0000	0.0	2015-11-23 17:16:19
		5539	0:00:55:000	328.0	0.0100	0.0	0.0002	0.1519	0.0000	0.0	2015-11-23 17:31:11
		5737	0:01:21:000	403.0	0.0099	0.0	0.0002	0.2231	0.0001	0.1	2015-11-23 17:46:01
		5934	0:00:35:000	115.0	-0.0099	0.0	0.0001	0.0963	0.0000	0.0	2015-11-23 18:00:53
		6130	0:00:00:000	53.0	0.0099	0.0	0.0000	0.0000	0.0000	0.0	2015-11-23 18:15:42
		6328	0:00:40:000	276.8	0.0099	0.0	0.0001	0.1101	0.0000	0.0	2015-11-23 18:30:43
		6526	0:01:05:000	356.5	0.0100	0.0	0.0002	0.1797	0.0000	0.0	2015-11-23 18:45:35
		6724	0:01:15:000	384.1	0.0099	0.0	0.0002	0.2073	0.0001	0.1	2015-11-23 19:00:15
		6921	0:00:05:000	326.4	-0.0099	0.0	0.0000	0.0138	0.0000	0.0	2015-11-23 19:14:52
		7119	0:00:35:000	116.2	-0.0100	0.0	0.0001	0.0972	0.0000	0.0	2015-11-23 19:29:59
		7317	0:01:02:000	-0.3	-0.0100	0.0	0.0002	0.1722	0.0000	0.0	2015-11-23 19:44:57
		7513	0:00:15:000	157.8	0.0100	0.0	0.0000	0.0416	0.0000	0.0	2015-11-23 19:59:40
		7711	0:00:45:000	289.8	0.0100	0.0	0.0001	0.1250	0.0000	0.0	2015-11-23 20:14:36
		7909	0:01:15:000	382.8	0.0100	0.0	0.0002	0.2083	0.0001	0.1	2015-11-23 20:29:33
		8106	0:00:10:000	254.8	-0.0100	0.0	0.0000	0.0278	0.0000	0.0	2015-11-23 20:44:15
		8304	0:00:40:000	88.9	-0.0100	0.0	0.0001	0.1111	0.0000	0.0	2015-11-23 20:59:07
263	0.0002	0.0002	0.2222	0.1694	76.25	0.0001	0.0000	136.0	0.0000	0.00	0.0002	0.1694	100.00	0:01:01	0.0000	0.0000	0.0000	0.0590	0.0246	41.74%
		8698	0:00:05:000	81.8	0.0100	0.0	0.0000	0.0139	0.0000	0.0	2015-11-23 21:28:33
		8896	0:00:15:000	158.7	0.0100	0.0	0.0000	0.0417	0.0000	0.0	2015-11-23 21:43:26
		9094	0:00:10:000	120.5	0.0100	0.0	0.0000	0.0278	0.0000	0.0	2015-11-23 21:58:18
	574	CC_Chg	0:01:36:000	0.0003	0.2667	0.0001	0.0714	0.0	82.4	400.5	0.0	0.0
		9492	0:00:40:000	73.1	-0.0100	0.0	0.0001	0.1111	0.0000	0.0	2015-11-23 22:28:16
		9691	0:01:40:000	401.7	0.0100	0.0	0.0003	0.2778	0.0001	0.1	2015-11-23 22:43:10
		9889	0:00:55:000	305.6	0.0100	0.0	0.0002	0.1528	0.0000	0.0	2015-11-23 22:57:58
		10087	0:00:15:000	158.4	0.0100	0.0	0.0000	0.0417	0.0000	0.0	2015-11-23 23:12:45
		10287	0:00:35:000	99.8	-0.0100	0.0	0.0001	0.0972	0.0000	0.0	2015-11-23 23:27:49
		10486	0:01:41:000	400.5	0.0100	0.0	0.0003	0.2806	0.0001	0.1	2015-11-23 23:42:50
		10684	0:01:05:000	328.0	0.0100	0.0	0.0002	0.1806	0.0000	0.0	2015-11-23 23:57:43
		10882	0:00:40:000	261.0	0.0100	0.0	0.0001	0.1111	0.0000	0.0	2015-11-24 00:12:43
		11080	0:00:10:000	134.5	0.0100	0.0	0.0000	0.0278	0.0000	0.0	2015-11-24 00:27:37
	690	CC_Chg	0:01:39:000	0.0003	0.2750	0.0001	0.0739	0.0	72.2	402.0	0.0	0.0
351	0.0003	0.0002	0.2694	0.1500	55.67	0.0001	0.0000	149.1	0.0000	0.00	0.0002	0.1500	100.00	0:00:54	0.0000	0.0000	0.0000	0.0726	0.0214	29.48%
		11676	0:00:55:000	0.6	-0.0100	0.0	0.0002	0.1528	0.0000	0.0	2015-11-24 01:13:20
		11874	0:00:40:000	67.2	-0.0100	0.0	0.0001	0.1111	0.0000	0.0	2015-11-24 01:28:27
		12072	0:00:30:000	122.1	-0.0100	0.0	0.0001	0.0833	0.0000	0.0	2015-11-24 01:43:32
		12270	0:00:20:000	182.2	-0.0100	0.0	0.0001	0.0556	0.0000	0.0	2015-11-24 01:58:34
	761	CC_DChg	0:00:55:000	0.0002	0.1528	0.0000	0.0213	0.0	307.2	-4.0	0.0	0.0
		12667	0:01:38:000	400.8	0.0100	0.0	0.0003	0.2722	0.0001	0.1	2015-11-24 02:28:40
		12865	0:01:35:000	391.5	0.0100	0.0	0.0003	0.2639	0.0001	0.1	2015-11-24 02:43:50
		13063	0:01:25:000	373.2	0.0100	0.0	0.0002	0.2361	0.0001	0.1	2015-11-24 02:58:57
		13261	0:01:10:000	339.7	0.0100	0.0	0.0002	0.1944	0.0000	0.0	2015-11-24 03:14:00
		13459	0:01:00:000	316.8	0.0100	0.0	0.0002	0.1667	0.0000	0.0	2015-11-24 03:29:07
		13657	0:00:45:000	271.8	0.0100	0.0	0.0001	0.1250	0.0000	0.0	2015-11-24 03:44:09
		13855	0:00:25:000	206.7	0.0100	0.0	0.0001	0.0694	0.0000	0.0	2015-11-24 03:59:04
		14053	0:00:05:000	88.9	0.0100	0.0	0.0000	0.0139	0.0000	0.0	2015-11-24 04:14:00
		14251	0:00:00:000	70.6	0.0100	0.0	0.0000	0.0000	0.0000	0.0	2015-11-24 04:29:08
		14451	0:00:55:000	0.3	-0.0100	0.0	0.0002	0.1528	0.0000	0.0	2015-11-24 04:44:25
		14649	0:00:35:000	94.5	-0.0100	0.0	0.0001	0.0972	0.0000	0.0	2015-11-24 04:59:25
		14847	0:00:15:000	217.6	-0.0100	0.0	0.0000	0.0417	0.0000	0.0	2015-11-24 05:14:21
		15045	0:00:05:000	307.2	-0.0100	0.0	0.0000	0.0139	0.0000	0.0	2015-11-24 05:29:21
		15243	0:00:00:000	308.1	-0.0100	0.0	0.0000	0.0000	0.0000	0.0	2015-11-24 05:44:37
		15442	0:01:35:000	393.7	0.0100	0.0	0.0003	0.2639	0.0001	0.1	2015-11-24 05:59:45
		15640	0:01:20:000	364.8	0.0100	0.0	0.0002	0.2222	0.0001	0.1	2015-11-24 06:14:43
		15838	0:01:05:000	332.3	0.0100	0.0	0.0002	0.1806	0.0000	0.0	2015-11-24 06:29:42
		16036	0:00:35:000	242.1	0.0100	0.0	0.0001	0.0972	0.0000	0.0	2015-11-24 06:44:29
		16234	0:00:05:000	79.0	0.0100	0.0	0.0000	0.0139	0.0000	0.0	2015-11-24 06:59:21
		16434	0:00:50:000	23.5	-0.0100	0.0	0.0001	0.1389	0.0000	0.0	2015-11-24 07:14:35
		16632	0:00:40:000	69.1	-0.0100	0.0	0.0001	0.1111	0.0000	0.0	2015-11-24 07:29:45
		16830	0:00:10:000	252.0	-0.0100	0.0	0.0000	0.0278	0.0000	0.0	2015-11-24 07:44:41
		17029	0:01:39:000	400.5	0.0100	0.0	0.0003	0.2750	0.0001	0.1	2015-11-24 07:59:57
		17227	0:01:15:000	351.2	0.0100	0.0	0.0002	0.2083	0.0000	0.0	2015-11-24 08:15:01
		17425	0:00:40:000	260.4	0.0100	0.0	0.0001	0.1111	0.0000	0.0	2015-11-24 08:29:58
		17623	0:00:20:000	181.9	0.0100	0.0	0.0001	0.0556	0.0000	0.0	2015-11-24 08:45:04
		17823	0:00:50:000	24.8	-0.0100	0.0	0.0001	0.1389	0.0000	0.0	2015-11-24 09:00:09
		18022	0:01:41:000	400.8	0.0100	0.0	0.0003	0.2806	0.0001	0.1	2015-11-24 09:14:56
		18220	0:00:50:000	287.3	0.0100	0.0	0.0001	0.1389	0.0000	0.0	2015-11-24 09:29:42
	1114	CC_Chg	0:01:39:000	0.0003	0.2750	0.0001	0.0736	0.0	82.4	402.0	0.0	0.0
		18618	0:00:30:000	119.3	-0.0100	0.0	0.0001	0.0833	0.0000	0.0	2015-11-24 09:59:33
		18816	0:00:00:000	324.5	-0.0100	0.0	0.0000	0.0000	0.0000	0.0	2015-11-24 10:14:38
		19015	0:01:00:000	316.8	0.0100	0.0	0.0002	0.1667	0.0000	0.0	2015-11-24 10:29:33
		19213	0:00:15:000	149.7	0.0100	0.0	0.0000	0.0417	0.0000	0.0	2015-11-24 10:44:29
		19413	0:00:30:000	126.1	-0.0100	0.0	0.0001	0.0833	0.0000	0.0	2015-11-24 10:59:42
		19612	0:01:25:000	363.0	0.0100	0.0	0.0002	0.2361	0.0001	0.1	2015-11-24 11:14:45
		19810	0:00:25:000	208.6	0.0100	0.0	0.0001	0.0694	0.0000	0.0	2015-11-24 11:29:30
		20010	0:00:40:000	70.3	-0.0100	0.0	0.0001	0.1111	0.0000	0.0	2015-11-24 11:44:44
		20209	0:01:25:000	356.5	0.0100	0.0	0.0002	0.2361	0.0001	0.1	2015-11-24 11:59:59
		20407	0:00:25:000	201.2	0.0100	0.0	0.0001	0.0694	0.0000	0.0	2015-11-24 12:15:06
		20607	0:00:50:000	21.0	-0.0100	0.0	0.0001	0.1389	0.0000	0.0	2015-11-24 12:30:28
	1251	CC_DChg	0:00:56:000	0.0002	0.1556	0.0000	0.0222	0.0	323.9	-1.2	0.0	0.0
		21004	0:00:50:000	287.3	0.0100	0.0	0.0001	0.1389	0.0000	0.0	2015-11-24 13:00:16
637	0.0003	0.0002	0.2833	0.1556	54.90	0.0001	0.0000	125.2	0.0000	0.00	0.0002	0.1556	100.00	0:00:56	0.0000	0.0000	0.0000	0.0757	0.0223	29.48%
		21402	0:00:05:000	307.5	-0.0100	0.0	0.0000	0.0139	0.0000	0.0	2015-11-24 13:30:12
		21601	0:01:00:000	313.4	0.0100	0.0	0.0002	0.1667	0.0000	0.0	2015-11-24 13:45:11
		21799	0:00:05:000	78.7	0.0100	0.0	0.0000	0.0139	0.0000	0.0	2015-11-24 13:59:57
		21999	0:00:25:000	145.3	-0.0100	0.0	0.0001	0.0694	0.0000	0.0	2015-11-24 14:15:05
		22198	0:01:40:000	400.2	0.0100	0.0	0.0003	0.2778	0.0001	0.1	2015-11-24 14:30:05
		22396	0:01:00:000	314.3	0.0100	0.0	0.0002	0.1667	0.0000	0.0	2015-11-24 14:45:00
		22594	0:00:00:000	78.4	0.0100	0.0	0.0000	0.0000	0.0000	0.0	2015-11-24 14:59:47
		22794	0:00:30:000	126.4	-0.0100	0.0	0.0001	0.0833	0.0000	0.0	2015-11-24 15:14:49
		22993	0:01:25:000	366.7	0.0100	0.0	0.0002	0.2361	0.0001	0.1	2015-11-24 15:29:43
		23191	0:00:25:000	209.5	0.0100	0.0	0.0001	0.0694	0.0000	0.0	2015-11-24 15:44:23
		23391	0:00:30:000	117.1	-0.0100	0.0	0.0001	0.0833	0.0000	0.0	2015-11-24 15:59:35
		23590	0:00:40:000	247.7	0.0100	0.0	0.0001	0.1111	0.0000	0.0	2015-11-24 16:14:46
		23790	0:00:10:000	250.4	-0.0100	0.0	0.0000	0.0278	0.0000	0.0	2015-11-24 16:29:59
		23799	0:00:53:000	-2.7	-0.0100	0.0	0.0001	0.1472	0.0000	0.0	2015-11-24 16:30:42