File: data/20151125_CuHcF_1B.txt
Cycle ID	Cap_Chg(mAh)	Cap_DChg(mAh)	RCap_Chg(mAh/g)	RCap_DChg(mAh/g)	Efficiency(%)	Engy_Chg(mWh)	Engy_DChg(mWh)	Mid-value Voltage(mV)	CC_Chg_Cap(mAh)	CC_Chg_Rat(%)	Platform_Cap(mAh)	Platform_RCap(mAh/g)	Platform_Efficiency(%)	Platform_Time	Capacitance_Chg(F)	Capacitance_DChg(F)	rd(mO)	REngy_Chg(mWh/g)	REngy_DChg(mWh/g)	Energy Efficiency(%)
	Step ID	Step Type	Step Time(H:M:S:ms)	Cap(mAh)	CmpCap(mAh/g)	Energy(mWh)	CmpEng(mWh/g)	Capacitance_Chg(F)	Start Vol(mV)	End Vol(mV)	Start Temperature(?)	End Temperature(?)
		Record ID	Time(H:M:S:ms)	Vol(mV)	Cur(mA)	Temperature(?)	Cap(mAh)	CmpCap(mAh/g)	Energy(mWh)	CmpEng(mWh/g)	Realtime
1	0.0004	0.0004	0.3750	0.4194	111.85	0.0001	0.0001	127.4	0.0000	0.00	0.0004	0.4194	100.00	0:02:31	0.0000	0.0000	0.0000	0.1248	0.0557	44.63%
		351	0:01:55:000	375.7	0.0100	0.0	0.0003	0.3194	0.0001	0.1	2015-11-25 12:10:54
		700	0:01:10:000	112.8	-0.0100	0.0	0.0002	0.1944	0.0000	0.0	2015-11-25 12:38:16
		1047	0:00:05:000	325.8	-0.0100	0.0	0.0000	0.0139	0.0000	0.0	2015-11-25 13:05:20
		1394	0:00:55:000	134.2	-0.0100	0.0	0.0002	0.1528	0.0000	0.0	2015-11-25 13:32:22
		1739	0:00:50:000	280.2	0.0100	0.0	0.0001	0.1389	0.0000	0.0	2015-11-25 13:59:01
	84	CC_Chg	0:01:41:000	0.0003	0.2806	0.0001	0.0737	0.0	75.6	402.0	0.0	0.0
		2429	0:01:40:000	1.8	-0.0100	0.0	0.0003	0.2778	0.0000	0.0	2015-11-25 14:52:37
		2771	0:00:10:000	105.0	0.0100	0.0	0.0000	0.0278	0.0000	0.0	2015-11-25 15:19:00
		3115	0:00:35:000	235.3	0.0100	0.0	0.0001	0.0972	0.0000	0.0	2015-11-25 15:45:42
		3459	0:01:15:000	355.9	0.0100	0.0	0.0002	0.2084	0.0000	0.0	2015-11-25 16:12:04
		3802	0:00:30:000	192.5	-0.0100	0.0	0.0001	0.0834	0.0000	0.0	2015-11-25 16:38:26
		4144	0:00:05:000	74.7	0.0100	0.0	0.0000	0.0139	0.0000	0.0	2015-11-25 17:04:46
		4487	0:00:20:000	233.7	-0.0100	0.0	0.0001	0.0556	0.0000	0.0	2015-11-25 17:31:24
		4829	0:00:25:000	199.0	0.0100	0.0	0.0001	0.0694	0.0000	0.0	2015-11-25 17:57:57
		5172	0:00:30:000	192.5	-0.0100	0.0	0.0001	0.0833	0.0000	0.0	2015-11-25 18:24:36
		5514	0:00:25:000	191.9	0.0100	0.0	0.0001	0.0694	0.0000	0.0	2015-11-25 18:51:11
		5857	0:00:15:000	255.1	-0.0100	0.0	0.0000	0.0417	0.0000	0.0	2015-11-25 19:17:42
		6199	0:00:25:000	193.4	0.0100	0.0	0.0001	0.0694	0.0000	0.0	2015-11-25 19:44:21
	301	CC_DChg	0:01:35:000	0.0003	0.2639	0.0000	0.0362	0.0	354.3	-2.1	0.0	0.0
		6886	0:01:10:000	66.9	-0.0100	0.0	0.0002	0.1944	0.0000	0.0	2015-11-25 20:37:08
		7228	0:00:35:000	230.3	0.0100	0.0	0.0001	0.0973	0.0000	0.0	2015-11-25 21:03:24
	351	CC_DChg	0:01:35:000	0.0003	0.2639	0.0000	0.0369	0.0	362.4	-1.8	0.0	0.0
		7915	0:00:50:000	124.3	-0.0100	0.0	0.0001	0.1389	0.0000	0.0	2015-11-25 21:56:02
		8257	0:00:15:000	144.4	0.0100	0.0	0.0000	0.0417	0.0000	0.0	2015-11-25 22:22:16
		8601	0:01:20:000	361.4	0.0100	0.0	0.0002	0.2222	0.0001	0.1	2015-11-25 22:48:43
		8944	0:00:15:000	259.4	-0.0100	0.0	0.0000	0.0417	0.0000	0.0	2015-11-25 23:14:47
		9288	0:01:20:000	38.1	-0.0100	0.0	0.0002	0.2222	0.0000	0.0	2015-11-25 23:41:10
		9630	0:00:55:000	298.5	0.0100	0.0	0.0002	0.1528	0.0000	0.0	2015-11-26 00:07:21
		9973	0:00:05:000	345.3	-0.0100	0.0	0.0000	0.0139	0.0000	0.0	2015-11-26 00:33:45
		10317	0:00:55:000	111.2	-0.0100	0.0	0.0002	0.1528	0.0000	0.0	2015-11-26 01:00:28
		10661	0:01:35:000	5.5	-0.0100	0.0	0.0003	0.2639	0.0000	0.0	2015-11-26 01:27:06
		11003	0:00:20:000	163.0	0.0100	0.0	0.0001	0.0556	0.0000	0.0	2015-11-26 01:53:28
		11347	0:01:00:000	305.0	0.0100	0.0	0.0002	0.1667	0.0000	0.0	2015-11-26 02:20:10
		11691	0:01:37:000	402.0	0.0100	0.0	0.0003	0.2694	0.0001	0.1	2015-11-26 02:46:41
		12034	0:00:30:000	195.3	-0.0100	0.0	0.0001	0.0833	0.0000	0.0	2015-11-26 03:13:00
		12378	0:01:05:000	81.8	-0.0100	0.0	0.0002	0.1806	0.0000	0.0	2015-11-26 03:39:24
299	0.0003	0.0003	0.2722	0.2722	99.99	0.0001	0.0000	127.4	0.0000	0.00	0.0003	0.2722	100.00	0:01:38	0.0000	0.0000	0.0000	0.0687	0.0379	55.12%
		13064	0:00:30:000	209.2	0.0100	0.0	0.0001	0.0833	0.0000	0.0	2015-11-26 04:32:30
		13408	0:01:10:000	331.4	0.0100	0.0	0.0002	0.1944	0.0000	0.0	2015-11-26 04:59:18
		13751	0:00:00:000	362.4	-0.0100	0.0	0.0000	0.0000	0.0000	0.0	2015-11-26 05:25:43
		14095	0:00:20:000	238.4	-0.0100	0.0	0.0001	0.0556	0.0000	0.0	2015-11-26 05:52:12
		14439	0:00:05:000	329.2	-0.0100	0.0	0.0000	0.0139	0.0000	0.0	2015-11-26 06:18:43
	695	CC_DChg	0:01:40:000	0.0003	0.2778	0.0000	0.0387	0.0	356.5	-2.1	0.0	0.0
		15128	0:01:35:000	388.7	0.0100	0.0	0.0003	0.2639	0.0001	0.1	2015-11-26 07:11:46
		15472	0:01:20:000	349.0	0.0100	0.0	0.0002	0.2222	0.0000	0.0	2015-11-26 07:38:11
		15816	0:00:50:000	271.5	0.0100	0.0	0.0001	0.1389	0.0000	0.0	2015-11-26 08:04:27
		16160	0:00:55:000	285.5	0.0100	0.0	0.0002	0.1528	0.0000	0.0	2015-11-26 08:31:01
		16504	0:01:15:000	341.0	0.0100	0.0	0.0002	0.2083	0.0000	0.0	2015-11-26 08:57:45
	791	CC_DChg	0:01:38:000	0.0003	0.2723	0.0000	0.0389	0.0	362.7	0.0	0.0	0.0
		17192	0:01:35:000	386.5	0.0100	0.0	0.0003	0.2639	0.0001	0.1	2015-11-26 09:51:02
		17536	0:00:55:000	283.0	0.0100	0.0	0.0002	0.1528	0.0000	0.0	2015-11-26 10:17:11
		17880	0:00:15:000	135.7	0.0100	0.0	0.0000	0.0417	0.0000	0.0	2015-11-26 10:43:25
		18226	0:01:35:000	16.4	-0.0100	0.0	0.0003	0.2639	0.0000	0.0	2015-11-26 11:09:58
		18570	0:00:55:000	122.4	-0.0100	0.0	0.0002	0.1528	0.0000	0.0	2015-11-26 11:36:06
		18914	0:00:30:000	201.5	-0.0100	0.0	0.0001	0.0833	0.0000	0.0	2015-11-26 12:02:22
		19258	0:00:10:000	292.3	-0.0100	0.0	0.0000	0.0278	0.0000	0.0	2015-11-26 12:28:42
		19602	0:00:00:000	362.4	-0.0100	0.0	0.0000	0.0000	0.0000	0.0	2015-11-26 12:55:08
		19947	0:01:41:000	400.5	0.0100	0.0	0.0003	0.2806	0.0001	0.1	2015-11-26 13:21:49
		20291	0:01:05:000	309.0	0.0100	0.0	0.0002	0.1806	0.0000	0.0	2015-11-26 13:48:20
		20635	0:00:35:000	213.2	0.0100	0.0	0.0001	0.0972	0.0000	0.0	2015-11-26 14:14:47
	980	CC_Chg	0:01:43:000	0.0003	0.2861	0.0001	0.0720	0.0	36.2	400.8	0.0	0.0
		21325	0:01:15:000	71.9	-0.0100	0.0	0.0002	0.2084	0.0000	0.0	2015-11-26 15:08:21
		21669	0:00:20:000	241.5	-0.0100	0.0	0.0001	0.0556	0.0000	0.0	2015-11-26 15:35:03
		22014	0:01:30:000	368.6	0.0100	0.0	0.0003	0.2501	0.0001	0.1	2015-11-26 16:02:10
		22358	0:00:45:000	248.6	0.0100	0.0	0.0001	0.1250	0.0000	0.0	2015-11-26 16:28:59
		22702	0:00:00:000	35.3	0.0100	0.0	0.0000	0.0000	0.0000	0.0	2015-11-26 16:55:49
		23048	0:00:35:000	190.3	-0.0100	0.0	0.0001	0.0972	0.0000	0.0	2015-11-26 17:22:34
		23393	0:00:35:000	206.7	0.0100	0.0	0.0001	0.0972	0.0000	0.0	2015-11-26 17:49:08
		23739	0:00:40:000	173.9	-0.0100	0.0	0.0001	0.1113	0.0000	0.0	2015-11-26 18:15:54
		24084	0:00:40:000	225.3	0.0101	0.0	0.0001	0.1113	0.0000	0.0	2015-11-26 18:42:35
		24430	0:00:45:000	161.5	-0.0100	0.0	0.0001	0.1253	0.0000	0.0	2015-11-26 19:09:35
		24775	0:00:45:000	239.0	0.0100	0.0	0.0001	0.1251	0.0000	0.0	2015-11-26 19:36:29
		25121	0:00:50:000	142.9	-0.0100	0.0	0.0001	0.1389	0.0000	0.0	2015-11-26 20:03:31
		25466	0:00:50:000	254.8	0.0100	0.0	0.0001	0.1389	0.0000	0.0	2015-11-26 20:30:26
		25812	0:00:55:000	130.8	-0.0100	0.0	0.0002	0.1528	0.0000	0.0	2015-11-26 20:57:24
		26157	0:00:55:000	274.9	0.0100	0.0	0.0002	0.1528	0.0000	0.0	2015-11-26 21:23:58
		26503	0:01:20:000	65.1	-0.0100	0.0	0.0002	0.2223	0.0000	0.0	2015-11-26 21:50:38
		26847	0:00:20:000	245.5	-0.0100	0.0	0.0001	0.0556	0.0000	0.0	2015-11-26 22:17:28
		27192	0:01:20:000	348.7	0.0100	0.0	0.0002	0.2222	0.0000	0.0	2015-11-26 22:44:27
		27536	0:00:35:000	212.6	0.0100	0.0	0.0001	0.0972	0.0000	0.0	2015-11-26 23:10:54
		27882	0:01:42:000	-1.2	-0.0100	0.0	0.0003	0.2833	0.0000	0.0	2015-11-26 23:37:50
		28226	0:01:00:000	114.3	-0.0100	0.0	0.0002	0.1667	0.0000	0.0	2015-11-27 00:04:43
		28570	0:00:05:000	333.5	-0.0100	0.0	0.0000	0.0139	0.0000	0.0	2015-11-27 00:31:33
		28915	0:01:00:000	288.9	0.0100	0.0	0.0002	0.1667	0.0000	0.0	2015-11-27 00:58:28
		29259	0:00:00:000	37.5	0.0100	0.0	0.0000	0.0000	0.0000	0.0	2015-11-27 01:25:16
		29605	0:01:10:000	87.4	-0.0100	0.0	0.0002	0.1945	0.0000	0.0	2015-11-27 01:52:24
		29949	0:00:05:000	338.5	-0.0100	0.0	0.0000	0.0139	0.0000	0.0	2015-11-27 02:19:07
		30294	0:00:40:000	227.5	0.0100	0.0	0.0001	0.1111	0.0000	0.0	2015-11-27 02:45:48
		30640	0:01:44:000	-1.2	-0.0100	0.0	0.0003	0.2889	0.0000	0.0	2015-11-27 03:12:52
		30984	0:00:25:000	227.5	-0.0100	0.0	0.0001	0.0694	0.0000	0.0	2015-11-27 03:39:26
		31329	0:01:10:000	320.8	0.0100	0.0	0.0002	0.1944	0.0000	0.0	2015-11-27 04:06:11
		31673	0:00:25:000	179.1	0.0100	0.0	0.0001	0.0695	0.0000	0.0	2015-11-27 04:32:53
		32019	0:01:20:000	60.1	-0.0100	0.0	0.0002	0.2223	0.0000	0.0	2015-11-27 04:59:47
		32363	0:00:25:000	221.9	-0.0100	0.0	0.0001	0.0694	0.0000	0.0	2015-11-27 05:26:32
		32708	0:01:25:000	355.5	0.0100	0.0	0.0002	0.2361	0.0001	0.1	2015-11-27 05:53:28
		33052	0:00:40:000	229.1	0.0100	0.0	0.0001	0.1111	0.0000	0.0	2015-11-27 06:19:59
		33396	0:00:00:000	67.8	0.0100	0.0	0.0000	0.0000	0.0000	0.0	2015-11-27 06:46:44
		33742	0:01:20:000	64.7	-0.0100	0.0	0.0002	0.2223	0.0000	0.0	2015-11-27 07:13:48
		34086	0:00:30:000	207.7	-0.0100	0.0	0.0001	0.0833	0.0000	0.0	2015-11-27 07:40:34
		34431	0:01:30:000	363.6	0.0100	0.0	0.0003	0.2501	0.0001	0.1	2015-11-27 08:07:31
		34775	0:00:20:000	152.5	0.0100	0.0	0.0001	0.0556	0.0000	0.0	2015-11-27 08:34:08
		35121	0:01:20:000	60.1	-0.0100	0.0	0.0002	0.2223	0.0000	0.0	2015-11-27 09:01:11
		35465	0:00:25:000	223.2	-0.0100	0.0	0.0001	0.0694	0.0000	0.0	2015-11-27 09:28:01
		35810	0:01:10:000	312.8	0.0100	0.0	0.0002	0.1946	0.0000	0.0	2015-11-27 09:54:52
		36156	0:01:45:000	6.8	-0.0100	0.0	0.0003	0.2921	0.0000	0.0	2015-11-27 10:21:40
		36500	0:01:15:000	75.6	-0.0100	0.0	0.0002	0.2084	0.0000	0.0	2015-11-27 10:48:25
		36844	0:01:20:000	55.1	-0.0101	0.0	0.0002	0.2224	0.0000	0.0	2015-11-27 11:15:13
		37188	0:01:05:000	96.1	-0.0100	0.0	0.0002	0.1807	0.0000	0.0	2015-11-27 11:41:51
		37532	0:00:25:000	229.4	-0.0100	0.0	0.0001	0.0695	0.0000	0.0	2015-11-27 12:08:30
		37877	0:01:40:000	392.4	0.0100	0.0	0.0003	0.2785	0.0001	0.1	2015-11-27 12:35:32
		38221	0:00:55:000	279.9	0.0100	0.0	0.0002	0.1532	0.0000	0.0	2015-11-27 13:02:19
		38565	0:00:05:000	66.0	0.0100	0.0	0.0000	0.0139	0.0000	0.0	2015-11-27 13:29:06
		38911	0:01:20:000	60.4	-0.0100	0.0	0.0002	0.2224	0.0000	0.0	2015-11-27 13:56:13
		39255	0:00:35:000	195.3	-0.0100	0.0	0.0001	0.0974	0.0000	0.0	2015-11-27 14:23:00
		39599	0:00:05:000	330.4	-0.0100	0.0	0.0000	0.0139	0.0000	0.0	2015-11-27 14:49:36
		39943	0:00:05:000	344.4	-0.0100	0.0	0.0000	0.0139	0.0000	0.0	2015-11-27 15:16:07
		40287	0:00:05:000	330.7	-0.0100	0.0	0.0000	0.0139	0.0000	0.0	2015-11-27 15:42:35
		40632	0:01:05:000	302.5	0.0100	0.0	0.0002	0.1807	0.0000	0.0	2015-11-27 16:09:11
		40976	0:00:15:000	130.5	0.0100	0.0	0.0000	0.0417	0.0000	0.0	2015-11-27 16:35:49
		41320	0:00:10:000	101.6	0.0100	0.0	0.0000	0.0278	0.0000	0.0	2015-11-27 17:02:22
		41489	0:01:41:000	-2.7	-0.0100	0.0	0.0003	0.2808	0.0000	0.0	2015-11-27 17:15:25